File: DS_cyl_100x200_1_Strength.csv
Idx_Sample,SiO2,Al2O3,Fe2O3,CaO,MgO,Na2O,K2O,SO3,TiO2,P2O5,LOI,FA (kg/m3),Coarse aggregate (kg/m3),Fine aggregate (kg/m3),Na2SiO3,NaOH,Total solution,Na2O (Dry),Sio2 (Dry),Concentration (M) NaOH,Water,NaOH (Dry),Additional water,Superplasticizer,water -eff,Initial curing time (day),Initial curing temp (C),Initial curing rest time (day),Mixture CO2 (Na2SiO3 as solution),7-d Cylindrical compressive strength (MPa)
1,53.36,26.49,10.86,1.34,0.77,0.37,0.8,1.7,1.47,1.43,1.39,476,1294,554,48,120,48,7.06,14.11,8,81.6,38.4,0,0,108.432,1,60,0,124.049,17
3,53.36,26.49,10.86,1.34,0.77,0.37,0.8,1.7,1.47,1.43,1.39,476,1294,554,120,48,120,17.64,35.28,8,32.64,15.36,0,0,99.72,0.166667,60,0,87.1319,24
5,53.36,26.49,10.86,1.34,0.77,0.37,0.8,1.7,1.47,1.43,1.39,476,1294,554,120,48,120,17.64,35.28,8,32.64,15.36,0,0,99.72,1,30,0,86.5971,20
7,53.36,26.49,10.86,1.34,0.77,0.37,0.8,1.7,1.47,1.43,1.39,476,1294,554,120,48,120,17.64,35.28,8,32.64,15.36,0,0,99.72,1,90,0,125.097,66
9,53.36,26.49,10.86,1.34,0.77,0.37,0.8,1.7,1.47,1.43,1.39,476,1294,554,120,48,120,17.64,35.28,14,21.12,26.88,0,0,88.2,2,30,0,111.866,49
11,53.36,26.49,10.86,1.34,0.77,0.37,0.8,1.7,1.47,1.43,1.39,476,1294,554,120,48,120,17.64,35.28,14,21.12,26.88,0,0,88.2,0.166667,90,0,112.401,30
13,53.36,26.49,10.86,1.34,0.77,0.37,0.8,1.7,1.47,1.43,1.39,476,1294,554,120,48,120,17.64,35.28,14,21.12,26.88,0,0,88.2,1,60,0,127.908,68
15,48,29,12.7,1.78,0.89,0.39,0.55,0.5,1.67,1.69,1.61,408,1294,554,103,51.5,103,15.14,30.28,14,22.66,28.84,16.5,0,96.737,1,60,0,125.269,42
17,48,29,12.7,1.78,0.89,0.39,0.55,0.5,1.67,1.69,1.61,408,1294,554,103,51.5,103,15.14,30.28,14,22.66,28.84,16.5,8.2,101.657,1,60,0,140.685,41
19,47.8,24.4,17.4,2.42,1.99,0.31,0.55,0.29,1.328,2,1.1,408,1201,647,103,41,103,15.14,30.28,12,21.32,19.68,14.3,6.1,96.857,1,60,0,119.196,40
21,47.8,24.4,17.4,2.42,1.99,0.31,0.55,0.29,1.328,2,1.1,408,1201,647,103,41,103,15.14,30.28,12,21.32,19.68,14.3,6.1,96.857,1,60,2,119.196,48
23,47.8,24.4,17.4,2.42,1.99,0.31,0.55,0.29,1.328,2,1.1,408,1201,647,103,41,103,15.14,30.28,12,21.32,19.68,14.3,6.1,96.857,1,60,4,119.196,49
25,47.8,24.4,17.4,2.42,1.99,0.31,0.55,0.29,1.328,2,1.1,408,1201,647,103,41,103,15.14,30.28,14,18.04,22.96,17.6,6.1,96.877,1,60,1,125.477,53
27,47.8,24.4,17.4,2.42,1.99,0.31,0.55,0.29,1.328,2,1.1,408,1201,647,103,41,103,15.14,30.28,14,18.04,22.96,17.6,6.1,96.877,1,60,3,125.477,57
29,47.8,24.4,17.4,2.42,1.99,0.31,0.55,0.29,1.328,2,1.1,408,1201,647,103,41,103,15.14,30.28,14,18.04,22.96,17.6,6.1,96.877,1,60,5,125.477,58
31,47.8,24.4,17.4,2.42,1.99,0.31,0.55,0.29,1.328,2,1.1,408,1201,647,103,41,103,15.14,30.28,12,21.32,19.68,14.3,6.1,96.857,1,60,1,119.196,53
33,47.8,24.4,17.4,2.42,1.99,0.31,0.55,0.29,1.328,2,1.1,408,1201,647,103,41,103,15.14,30.28,12,21.32,19.68,14.3,6.1,96.857,1,60,3,119.196,59
35,47.8,24.4,17.4,2.42,1.99,0.31,0.55,0.29,1.328,2,1.1,408,1201,647,103,41,103,15.14,30.28,12,21.32,19.68,14.3,6.1,96.857,1,60,5,119.196,59
37,47.8,24.4,17.4,2.42,1.99,0.31,0.55,0.29,1.328,2,1.1,408,1201,647,103,41,103,15.14,30.28,8,27.88,13.12,0,6.1,89.117,1,60,1,106.634,74
39,47.8,24.4,17.4,2.42,1.99,0.31,0.55,0.29,1.328,2,1.1,408,1201,647,103,41,103,15.14,30.28,8,27.88,13.12,0,6.1,89.117,1,60,3,106.634,76
41,47.8,24.4,17.4,2.42,1.99,0.31,0.55,0.29,1.328,2,1.1,408,1201,647,103,41,103,15.14,30.28,8,27.88,13.12,0,6.1,89.117,1,60,5,106.634,77
43,53.36,26.49,10.86,1.34,0.77,0.37,0.8,1.7,1.47,1.43,1.39,408,1294,554,103,41,103,15.14,30.28,14,18.04,22.96,0,8.2,80.537,1,45,0,119.8,55
45,53.36,26.49,10.86,1.34,0.77,0.37,0.8,1.7,1.47,1.43,1.39,408,1294,554,103,41,103,15.14,30.28,14,18.04,22.96,0,8.2,80.537,1,75,0,139.05,65
47,53.36,26.49,10.86,1.34,0.77,0.37,0.8,1.7,1.47,1.43,1.39,408,1294,554,103,41,103,15.14,30.28,14,18.04,22.96,10.7,8.2,91.237,1,30,0,110.175,35
49,53.36,26.49,10.86,1.34,0.77,0.37,0.8,1.7,1.47,1.43,1.39,408,1294,554,103,41,103,15.14,30.28,14,18.04,22.96,10.7,8.2,91.237,1,75,0,139.05,60
51,53.36,26.49,10.86,1.34,0.77,0.37,0.8,1.7,1.47,1.43,1.39,408,1294,554,103,41,103,15.14,30.28,14,18.04,22.96,21.3,8.2,101.837,1,30,0,110.175,32
53,53.36,26.49,10.86,1.34,0.77,0.37,0.8,1.7,1.47,1.43,1.39,408,1294,554,103,41,103,15.14,30.28,14,18.04,22.96,21.3,8.2,101.837,1,60,0,129.425,44
55,53.36,26.49,10.86,1.34,0.77,0.37,0.8,1.7,1.47,1.43,1.39,408,1294,554,103,41,103,15.14,30.28,14,18.04,22.96,21.3,8.2,101.837,1,90,0,148.675,44
57,47.8,24.4,17.4,2.42,1.99,0.31,0.55,0.29,1.328,2,1.1,408,1201,647,103,41,103,15.14,30.28,8,27.88,13.12,0,6.1,89.117,1,60,0,106.634,47
59,47.8,24.4,17.4,2.42,1.99,0.31,0.55,0.29,1.328,2,1.1,408,1201,647,103,41,103,15.14,30.28,10,24.6,16.4,7.5,6.1,93.337,1,60,0,112.915,45
61,47.8,24.4,17.4,2.42,1.99,0.31,0.55,0.29,1.328,2,1.1,408,1201,647,103,41,103,15.14,30.28,12,21.32,19.68,14.4,6.1,96.957,1,60,0,119.196,42
63,47.8,24.4,17.4,2.42,1.99,0.31,0.55,0.29,1.328,2,1.1,408,1201,647,103,41,103,15.14,30.28,14,18.04,22.96,20.7,6.1,99.977,1,60,0,125.477,40
65,47.8,24.4,17.4,2.42,1.99,0.31,0.55,0.29,1.328,2,1.1,408,1201,647,103,41,103,15.14,30.28,16,14.76,26.24,26.5,6.1,102.497,1,60,0,131.758,40
67,48,29,12.7,1.78,0.89,0.39,0.55,0.5,1.67,1.69,1.61,408,1294,647,103,41,103,15.14,30.28,14,18.04,22.96,16.5,6.1,95.777,1,60,0,125.924,56
69,47.8,24.4,17.4,2.42,1.99,0.31,0.55,0.29,1.328,2,1.1,408,1294,554,103,41,103,15.14,30.28,8,27.88,13.12,0,6.1,89.117,1,90,0,125.884,68
71,47.8,24.4,17.4,2.42,1.99,0.31,0.55,0.29,1.328,2,1.1,408,1294,554,103,41,103,15.14,30.28,8,27.88,13.12,0,6.1,89.117,1,90,0,125.884,44
82,47.8,24.4,17.4,2.42,1.99,0.31,0.55,0.29,1.328,2,1.1,408,1309,561,88,35,88,12.94,25.87,14,15.4,19.6,20.7,8.2,90.212,1,90,0,136.946,26
90,47.8,24.4,17.4,2.42,1.99,0.31,0.55,0.29,1.328,2,1.1,408,1309,561,103,51,103,15.14,30.28,14,22.44,28.56,20.7,6.1,104.377,1,60,0,136.307,37
100,47.8,24.4,17.4,2.42,1.99,0.31,0.55,0.29,1.328,2,1.1,476,1294,554,120,48,120,17.64,35.28,8,32.64,15.36,0,0,99.72,0.166667,60,0,87.1319,25
102,47.8,24.4,17.4,2.42,1.99,0.31,0.55,0.29,1.328,2,1.1,476,1294,554,120,48,120,17.64,35.28,8,32.64,15.36,0,0,99.72,0.5,60,0,94.618,41
104,47.8,24.4,17.4,2.42,1.99,0.31,0.55,0.29,1.328,2,1.1,476,1294,554,120,48,120,17.64,35.28,8,32.64,15.36,0,0,99.72,3,60,0,150.7638,77
106,47.8,24.4,17.4,2.42,1.99,0.31,0.55,0.29,1.328,2,1.1,476,1294,554,120,48,120,17.64,35.28,8,32.64,15.36,0,4.1,102.18,1,60,0,113.555,56
108,47.8,24.4,17.4,2.42,1.99,0.31,0.55,0.29,1.328,2,1.1,476,1294,554,120,48,120,17.64,35.28,8,32.64,15.36,0,8.2,104.64,1,60,0,121.263,57
110,47.8,24.4,17.4,2.42,1.99,0.31,0.55,0.29,1.328,2,1.1,476,1294,554,120,48,120,17.64,35.28,8,32.64,15.36,0,12.2,107.04,1,60,0,128.783,50
112,47.8,24.4,17.4,2.42,1.99,0.31,0.55,0.29,1.328,2,1.1,476,1294,554,120,48,120,17.64,35.28,8,32.64,15.36,0,4.1,102.18,1,60,0.0416667,113.555,56
114,47.8,24.4,17.4,2.42,1.99,0.31,0.55,0.29,1.328,2,1.1,476,1294,554,120,48,120,17.64,35.28,8,32.64,15.36,0,8.2,104.64,1,60,0.0416667,121.263,57
116,47.8,24.4,17.4,2.42,1.99,0.31,0.55,0.29,1.328,2,1.1,476,1294,554,120,48,120,17.64,35.28,8,32.64,15.36,0,12.2,107.04,1,60,0.0416667,128.783,50
118,47.8,24.4,17.4,2.42,1.99,0.31,0.55,0.29,1.328,2,1.1,476,1294,554,120,48,120,17.64,35.28,8,32.64,15.36,0,6.1,103.38,1,30,0,98.0651,35
120,47.8,24.4,17.4,2.42,1.99,0.31,0.55,0.29,1.328,2,1.1,476,1294,554,120,48,120,17.64,35.28,8,32.64,15.36,0,6.1,103.38,1,60,0,117.315,63
122,47.8,24.4,17.4,2.42,1.99,0.31,0.55,0.29,1.328,2,1.1,476,1294,554,120,48,120,17.64,35.28,8,32.64,15.36,0,6.1,103.38,1,90,0,136.565,63
124,47.8,24.4,17.4,2.42,1.99,0.31,0.55,0.29,1.328,2,1.1,476,1294,554,120,48,120,17.64,35.28,8,32.64,15.36,0,6.1,103.38,0.25,60,0,100.471,42
126,47.8,24.4,17.4,2.42,1.99,0.31,0.55,0.29,1.328,2,1.1,476,1294,554,120,48,120,17.64,35.28,8,32.64,15.36,0,6.1,103.38,0.25,90,0,105.284,51
128,47.8,24.4,17.4,2.42,1.99,0.31,0.55,0.29,1.328,2,1.1,476,1294,554,120,48,120,17.64,35.28,8,32.64,15.36,0,6.1,103.38,1,90,0.04,136.565,61