File: DS_cube_100_5_Strength.csv
Idx_Sample,SiO2,Al2O3,Fe2O3,CaO,MgO,Na2O,K2O,SO3,TiO2,P2O5,SrO,Mn2O3,MnO,LOI,Cement (kg/m3),FA (kg/m3),GGBFS (kg/m3),SF (kg/m3),Kaolin (kg/m3),Other SCM (kg/m3),Coarse aggregate (kg/m3),Fine aggregate (kg/m3),Na2SiO3,NaOH,NaOH specific gravity,Na2SiO3 specific gravity,Total solution,Na2O (l),Sio2 (l),H2O,Na2O (Dry),Sio2 (Dry),Water,Total NaOH,Concentration (M) NaOH,Water,NaOH (Dry),Additional water,Superplasticizer,water -eff,Initial curing time (day),Initial curing temp (C),Final curing temp (C),Mixture CO2 (Na2SiO3 as solution),28-d Cubic compressive strength (MPa)
192,51.3,30.1,4.57,8.73,0,0,1.56,1.4,0.698,1.6,0,0,0,0,0,400,0,0,0,0,950,850,143,57,0,0,143,0.1426,0.2943,0.56,20.39,42.08,80.5233,57,12,29.64,27.36,48,28,174.9633,1,70,24,195.6294,48.53
198,51.3,30.1,4.57,8.73,0,0,1.56,1.4,0.698,1.6,0,0,0,0,0,400,0,0,0,0,950,850,143,57,0,0,143,0.1426,0.2943,0.56,20.39,42.08,80.5233,57,12,29.64,27.36,48,28,174.9633,2,80,24,237.338,50.77
403,52.75,19.97,2.285,20.565,1.025,0.47,0.885,0.2,0.545,0,0,0.02,0,1.43,0,194,194,0,0,0,1241,523,49.6,24.8,0,1.54,49.6,0.1434,0.3223,0.53,7.11,15.99,26.50128,24.8,3,21.824,2.976,0,0,48.32528,0,25,24,42.88624,50
419,57.135,25.708,4.135,7.6065,0,0,1.929,1.4,0.595,1.36,0,0,0,0,0,400,0,60,0,0,950,850,143,60,0,0,143,0.1436,0.2943,0.56,20.53,42.08,80.3803,60,14,26.4,33.6,48,24,169.1803,2,70,24,229.774,53.96
503,45.172,24.898,2.432,17.516,5.43,0.184,0.718,0,1.2,0.2468,0,0,0,0.822,0,372,248,0,0,0,1008,432,243,97,1.13,1.4,243,0.0893,0.298,0.61,21.7,72.41,148.8861,97,6,73.72,23.28,0,0,222.6061,0,25,24,153.3572,31.0011
509,45.172,24.898,2.432,17.516,5.43,0.184,0.718,0,1.2,0.2468,0,0,0,0.822,0,279,186,0,0,0,1176,504,182,73,0,1.4,182,0.0893,0.298,0.61,16.25,54.24,111.5114,73,3,64.24,8.76,0,0,175.7514,0,25,24,101.1474,30.1053
515,48.8814,27.7781,2.7594,12.2577,3.68498,0.207267,0.739605,0,1.39112,0.314607,0,0,0,0.750537,0,485,148,0,0,0,858,520,98,82,1.17,1.54,98,0.1492,0.298,0.55,14.62,29.2,54.1744,82,8,55.76,26.24,104,0,213.9344,0,25,24,101.78,34.2926
521,45.2472,24.9564,2.43864,17.4094,5.39462,0.184472,0.718438,0,1.20387,0.248175,0,0,0,0.820551,0,394,259,0,0,0,776,597,108,92,1.17,1.54,108,0.1492,0.298,0.55,16.11,32.18,59.7024,92,8,62.56,29.44,90,0,212.2624,0,25,24,116.892,66.9997
527,45.2472,24.9564,2.43864,17.4094,5.39462,0.184472,0.718438,0,1.20387,0.248175,0,0,0,0.820551,0,394,259,0,0,0,776,597,81,69,1.17,1.54,81,0.1492,0.298,0.55,12.09,24.14,44.7768,69,8,46.92,22.08,125,0,216.6968,0,25,24,93.0776,53.7883
533,45.2472,24.9564,2.43864,17.4094,5.39462,0.184472,0.718438,0,1.20387,0.248175,0,0,0,0.820551,0,394,259,0,0,0,858,520,54,92,1.17,1.54,54,0.1492,0.298,0.55,8.06,16.09,29.8512,92,8,62.56,29.44,125,0,217.4112,0,25,24,97.476,40.2703
594,30.97,17.41,1.03,36.77,9.01,0.69,0.46,1.82,0,0,0,0,0,0,0,0,356.36,0,0,0,1284.29,467.12,80.18,80.18,0,0,80.18,0.09,0.28,0.63,7.22,22.45,50.5134,80.18,8,54.5224,25.6576,0,3.56,107.1718,0,24,24,111.629,41.291
600,30.97,17.41,1.03,36.77,9.01,0.69,0.46,1.82,0,0,0,0,0,0,0,0,356.36,0,0,0,1284.29,467.12,80.18,80.18,0,0,80.18,0.09,0.28,0.63,7.22,22.45,50.5134,80.18,12,41.6936,38.4864,0,3.56,94.343,0,24,24,136.197,45.8666
656,41.45,21.535,5.515,22.605,3.645,0.235,0.415,1.505,1.3,0.325,0,0.285,0,0.725,0,394.29,394.29,0,0,0,1294,554,112.65,45.6,0,0,112.65,0.137,0.294,0.57,15.43,33.12,64.09785,45.6,12,23.712,21.888,0,0,87.80985,0,25,24,113.42,58
736,61.3,29.4,3.27,1.21,0.75,0.73,1.2,0.003,0.01,0,0,0,0,0.45,0,350,0,0,0,0,1167,777,133.18,44.39,0,1.53,44.39,0.137,0.294,0.57,6.08,13.05,25.25791,133.18,10,79.908,53.272,0,0,105.166,1,60,24,183.15,32.6
742,61.3,29.4,3.27,1.21,0.75,0.73,1.2,0.003,0.01,0,0,0,0,0.45,0,350,0,0,0,0,1167,777,133.18,44.39,0,1.53,44.39,0.137,0.294,0.57,6.08,13.05,25.25791,133.18,16,47.9448,85.2352,0,0,73.20271,1,60,24,244.36,36.8
748,61.3,29.4,3.27,1.21,0.75,0.73,1.2,0.003,0.01,0,0,0,0,0.45,0,450,0,0,0,0,1051,700,169.83,56.61,0,1.53,44.39,0.137,0.294,0.57,6.08,13.05,25.25791,133.18,14,58.5992,74.5808,0,0,83.85711,1,60,24,236.624,42.5
754,61.3,29.4,3.27,1.21,0.75,0.73,1.2,0.003,0.01,0,0,0,0,0.45,0,350,0,0,0,0,1167,777,118.09,59.22,0,1.53,59.22,0.137,0.294,0.57,8.11,17.41,33.69618,118.09,16,42.5124,75.5776,0,0,76.20858,0.333333,60,24,205.461,24.8
760,30.97,17.41,1.03,36.77,9.01,0.69,0.46,1.82,0,0,0,0,0,0,0,0,400,0,0,0,1024,524,156.25,62.86,0,0,156.25,0.09,0.28,0.63,14.06,43.75,98.4375,62.86,14,27.6584,35.2016,0,0,126.0959,0,25,24,151.891,59.2208
766,35.176,23.128,0.944,29.434,7.214,0.572,0.374,1.456,0,0,0,0,0,0,0,0,320,0,80,0,1024,524,156.25,62.86,0,0,156.25,0.09,0.28,0.63,14.06,43.75,98.4375,62.86,14,27.6584,35.2016,0,0,126.0959,0,25,24,174.131,63.3753
808,65.6,28,3,1,1,0,0,0.2,0.5,0,0,0,0,0.29,0,409,0,0,0,0,1290,549,102,41,0,0,102,0.137,0.294,0.57,13.97,29.99,58.038,41,10,24.6,16.4,55,0,137.638,0,25,24,78.5892,24.5
852,40.17,13.86,15.16,9.7,9.57,3.66,1.53,0.09,0,0,0,0,0,4.75,0,0,0,0,0,410,740,1110,103,41,2.13,1.53,103,0.11,0.29,0.6,11.33,29.87,61.8,41,12,21.32,19.68,98,16.4,190.96,0,25,24,114.4792,18.3
858,40.17,13.86,15.16,9.7,9.57,3.66,1.53,0.09,0,0,0,0,0,4.75,0,0,0,0,0,410,740,1110,96,48,2.13,1.53,96,0.11,0.29,0.6,10.56,27.84,57.6,48,14,21.12,26.88,101,12.3,187.1,0,25,24,118.0392,19.5
875,32.62,31.23,8.48,17.12,3.49,0.91,0.1,0,1.65,0,0,0,0,0.93,0,444,0,0,0,0,1260,540,111,45,0,0,111,0.147,0.294,0.56,16.32,32.63,62.049,45,8,30.6,14.4,36,5.8,132.129,0,25,24,88.856,15.1027
939,61.89,28.05,4.11,0.87,0.38,0.4,0.82,1.32,0,0,0,0,0,0.49,0,400,0,0,0,0,1419,344,120,80,1.451,1.35,120,0.09,0.28,0.63,10.8,33.6,75.6,80,16,28.8,51.2,0,4,106.8,1,60,24,181.289,45.95
1023,39.82,18.004,5.634,18.832,3.574,0.954,2.826,1.244,0.898,0.102,0.052,0.234,0,3.102,0,240,160,0,0,0,1110,720,94,77,0,0,94,0.128,0.255,0.62,12.03,23.97,57.998,77,10,46.2,30.8,55,0,159.198,0,25,24,110.886,69.1
1030,39.8291,18.0099,5.63859,18.8103,3.57107,0.953916,2.82765,1.24355,0.898198,0.102089,0.0519843,0.23376,0,3.10261,0,230,153,0,0,0,1111,721,90,74,0,0,90,0.128,0.255,0.62,11.52,22.95,55.53,74,10,44.4,29.6,63,0,162.93,0,25,24,106.7536,58.6
1036,39.83,18.0105,5.63905,18.8082,3.57078,0.953908,2.82782,1.24351,0.898218,0.102098,0.0519828,0.233736,0,3.10267,0,209,139,0,0,0,1160,753,82,67,0,0,82,0.128,0.255,0.62,10.5,20.91,50.594,67,10,40.2,26.8,57,0,147.794,0,25,24,98.0884,56.8
1153,47.6,21.4,7.8,11.9,1.8,0.7,0.82,2.8,1.88,0,0,0,0,3.3,0,550,0,0,0,0,838,600,144,95,0,0,144,0.12,0.3,0.58,17.28,43.2,83.52,95,14,41.8,53.2,0,0,125.32,0,25,24,162.8204,38.5
1236,46.78,22.52,9.15,2.24,1.33,0.89,4.09,0.9,1.05,0.17,0,0,0.05,3.57,0,348,0,0,0,0,1145,742,82,67,0,0,82,0.128,0.255,0.62,10.5,20.91,50.594,67,7.5,46.9,20.1,0,0,97.494,28,70,65,886.9611,11.7314
1242,43.3093,20.268,7.39668,10.5139,2.44902,0.921915,3.45968,1.07154,0.974202,0.13609,0,0,0.141755,3.33662,0,301,75,0,0,0,1111,721,89,73,0,0,89,0.128,0.255,0.62,11.39,22.7,54.913,73,7.5,51.1,21.9,0,0,106.013,0,20,24,87.8761,37.6314
1248,43.3099,20.2684,7.39701,10.5124,2.4488,0.921909,3.4598,1.07151,0.974217,0.136097,0,0,0.141738,3.33667,0,281,70,0,0,0,1160,753,83,68,0,0,83,0.128,0.255,0.62,10.62,21.17,51.211,68,7.5,47.6,20.4,0,0,98.811,0,20,24,82.8924,38.1614
1254,39.8296,18.0102,5.63884,18.8091,3.57091,0.953912,2.82774,1.24353,0.898209,0.102094,0,0,0.233747,3.10264,0,218,145,0,0,0,1111,721,86,70,0,0,86,0.128,0.255,0.62,11.01,21.93,53.062,70,7.5,49,21,0,0,102.062,0,20,24,88.3806,50.9846
1260,39.82,18.004,5.634,18.832,3.574,0.954,2.826,1.244,0.898,0.102,0,0,0.234,3.102,0,198,132,0,0,0,1160,753,78,64,0,0,78,0.128,0.255,0.62,9.98,19.89,48.126,64,7.5,44.8,19.2,0,0,92.926,0,20,24,81.6864,36.1373
1266,34.6159,14.6273,3.00502,31.2382,5.25188,1.00185,1.88088,1.50122,0.784347,0.051155,0,0,0.371581,2.75207,0,99,230,0,0,0,1145,742,77,63,0,0,77,0.128,0.255,0.62,9.86,19.64,47.509,63,7.5,44.1,18.9,0,0,91.609,0,20,24,85.3271,68.0015
1317,50.76,27.32,4.64,5.4,3.72,0.8,4.85,2,1.16,0,0,0,0,0,0,280,0,0,0,0,1309,561,126,84,0,0,126,0.0883,0.2764,0.64,11.13,34.83,80.0478,84,12,43.68,40.32,0,0,123.7278,1,80,24,167.96,43.3
1323,55.1232,12.7968,8.8916,8.5564,7.6688,2.9224,0.9048,0.0272,1.92,0.3408,0,0,0,0.8,0,76.8,0,0,0,307.2,1185.6,683.4,103,54.85,0,0,103,0.115,0.3,0.59,11.85,30.9,60.255,54.85,8,37.298,17.552,0,7.68,102.161,0,25,24,94.40888,8.75
1329,47.1063,21.2692,8.9049,7.7506,6.8832,2.8061,1.0407,0.0238,1.761,0.2982,0,0,0,1.135,0,115.2,0,0,0,268.8,1185.6,683.4,103,54.85,0,0,103,0.115,0.3,0.59,11.85,30.9,60.255,54.85,8,37.298,17.552,0,7.68,102.161,0,25,24,94.56248,20.5
1335,40.5254,15.4336,7.8042,21.8548,8.5276,2.2918,0.8546,0.0204,1.44,0.2556,0,0,0,1.32,0,0,153.6,0,0,230.4,1185.6,683.4,103,54.85,0,0,103,0.115,0.3,0.59,11.85,30.9,60.255,54.85,8,37.298,17.552,0,7.68,102.161,0,25,24,102.089,46
1390,48.299,22.562,1.278,13.835,8.92,0.607,1.964,0.938,0.839,0,0,0,0,0,0,280,120,0,0,0,1210,652,107,53,0,0,107,0.1536,0.3071,0.54,16.44,32.86,57.7051,53,10,31.8,21.2,0,4,91.9051,0,25,20,102.9356,56.4599
1396,49.1225,23.205,1.34,12.1375,9.025,0.6325,2.065,0.875,0.8425,0,0,0,0,0,0,300,100,0,0,0,1246,671,93,47,0,0,93,0.1536,0.3071,0.54,14.28,28.56,50.1549,47,10,28.2,18.8,0,4,80.7549,0,25,20,92.6036,48.6402
1716,54.234,24.65,3.385,11.063,0,0.319,0.71,0,0,0,0,0,0,0.456,0,200,85,0,0,0,1163,726,120,80,14115,1.4,120,0.1,0.275,0.625,12,33,75,80,14,35.2,44.8,122,0,232.2,0,24,24,143.2792,39.6
1724,49.2274,26.1356,4.543646,8.32401,3.697104,0.77615,4.641551,2.1431,1.144736,0,0,0,0,0,14,280,0,0,0,0,1309,561,126,84,0,0,126,0.0883,0.2764,0.64,11.13,34.83,80.0478,84,12,43.68,40.32,0,0,123.7278,0,25,24,144.4288,20.2
1729,49.2274,26.1356,4.543646,8.32401,3.697104,0.77615,4.641551,2.1431,1.144736,0,0,0,0,0,14,280,0,0,0,0,1309,561,126,84,0,0,126,0.0883,0.2764,0.64,11.13,34.83,80.0478,84,12,43.68,40.32,0,0,123.7278,1,80,24,179.72,52.6