File: DS_cube_100_3_Strength.csv
Idx_Sample,SiO2,Al2O3,Fe2O3,CaO,MgO,Na2O,K2O,SO3,TiO2,P2O5,SrO,Mn2O3,MnO,LOI,Cement (kg/m3),FA (kg/m3),GGBFS (kg/m3),SF (kg/m3),Kaolin (kg/m3),Other SCM (kg/m3),Coarse aggregate (kg/m3),Fine aggregate (kg/m3),Na2SiO3,NaOH,NaOH specific gravity,Na2SiO3 specific gravity,Total solution,Na2O (l),Sio2 (l),H2O,Na2O (Dry),Sio2 (Dry),Water,Total NaOH,Concentration (M) NaOH,Water,NaOH (Dry),Additional water,Superplasticizer,water -eff,Initial curing time (day),Initial curing temp (C),Final curing temp (C),Mixture CO2 (Na2SiO3 as solution),7-d Cubic compressive strength (MPa)
192,51.3,30.1,4.57,8.73,0,0,1.56,1.4,0.698,1.6,0,0,0,0,0,400,0,0,0,0,950,850,143,57,0,0,143,0.1426,0.2943,0.56,20.39,42.08,80.5233,57,12,29.64,27.36,48,28,174.9633,1,70,24,195.6294,46.94
196,51.3,30.1,4.57,8.73,0,0,1.56,1.4,0.698,1.6,0,0,0,0,0,400,0,0,0,0,950,850,143,57,0,0,143,0.1426,0.2943,0.56,20.39,42.08,80.5233,57,12,29.64,27.36,48,28,174.9633,2,60,24,211.671,45.98
366,52.54,26.74,11.12,1.28,0.87,0.47,0.82,1.7,1.57,1.53,0,0,0,1.36,0,450,0,0,0,0,1211.9,579.35,128.63,51.45,0,0,128.63,0.147,0.294,0.56,18.91,37.82,71.90417,51.45,8,34.986,16.464,0,0,106.89,1,60,24,110.692,49.5
370,52.54,26.74,11.12,1.28,0.87,0.47,0.82,1.7,1.57,1.53,0,0,0,1.36,0,450,0,0,0,0,1211.9,579.35,144.68,57.88,0,0,144.68,0.147,0.294,0.56,21.27,42.54,80.87612,57.88,10,34.728,23.152,0,0,115.604,1,60,24,129.277,49.13
374,52.54,26.74,11.12,1.28,0.87,0.47,0.82,1.7,1.57,1.53,0,0,0,1.36,0,450,0,0,0,0,1211.9,579.35,160.78,64.31,0,0,160.78,0.147,0.294,0.56,23.63,47.27,89.87602,64.31,12,33.4412,30.8688,0,0,123.317,1,60,24,149.851,49.26
399,52.75,19.97,2.285,20.565,1.025,0.47,0.885,0.2,0.545,0,0,0,0,1.43,0,194,194,0,0,0,1241,523,49.6,24.8,0,1.54,49.6,0.1434,0.3223,0.53,7.11,15.99,26.50128,24.8,3,21.824,2.976,0,0,48.32528,0,25,24,42.88624,36
419,57.135,25.708,4.135,7.6065,0,0,1.929,1.4,0.595,1.36,0,0,0,0,0,400,0,60,0,0,950,850,143,60,0,0,143,0.1436,0.2943,0.56,20.53,42.08,80.3803,60,14,26.4,33.6,48,24,169.1803,2,70,24,229.774,51.55
514,48.8814,27.7781,2.7594,12.2577,3.68498,0.207267,0.739605,0,1.39112,0.314607,0,0,0,0.750537,0,485,148,0,0,0,858,520,108,92,1.17,1.54,108,0.1492,0.298,0.55,16.11,32.18,59.7024,92,8,62.56,29.44,90,0,212.2624,0,25,24,111.508,33.75
518,49.636,28.364,2.826,11.188,3.33,0.212,0.744,0,1.43,0.3284,0,0,0,0.736,0,504,126,0,0,0,858,520,98,82,1.17,1.54,98,0.1492,0.298,0.55,14.62,29.2,54.1744,82,8,55.76,26.24,104,0,213.9344,0,25,24,100.712,28.75
596,30.97,17.41,1.03,36.77,9.01,0.69,0.46,1.82,0,0,0,0,0,0,0,0,356.36,0,0,0,1284.29,467.12,106.907,53.4533,0,0,106.907,0.09,0.28,0.63,9.62,29.93,67.3512,53.4533,8,36.3483,17.1051,0,3.56,105.835,0,24,24,104.873,47.7076
600,30.97,17.41,1.03,36.77,9.01,0.69,0.46,1.82,0,0,0,0,0,0,0,0,356.36,0,0,0,1284.29,467.12,80.18,80.18,0,0,80.18,0.09,0.28,0.63,7.22,22.45,50.5134,80.18,12,41.6936,38.4864,0,3.56,94.343,0,24,24,136.197,41.613
604,30.97,17.41,1.03,36.77,9.01,0.69,0.46,1.82,0,0,0,0,0,0,0,0,356.36,0,0,0,1284.29,467.12,96.216,64.144,0,0,96.216,0.09,0.28,0.63,8.66,26.94,60.61608,64.144,14,28.22336,35.92064,0,3.56,90.97544,0,24,24,137.056,60.9902
736,61.3,29.4,3.27,1.21,0.75,0.73,1.2,0.003,0.01,0,0,0,0,0.45,0,350,0,0,0,0,1167,777,133.18,44.39,0,1.53,44.39,0.137,0.294,0.57,6.08,13.05,25.25791,133.18,10,79.908,53.272,0,0,105.166,1,60,24,183.15,31.1
740,61.3,29.4,3.27,1.21,0.75,0.73,1.2,0.003,0.01,0,0,0,0,0.45,0,350,0,0,0,0,1167,777,88.39,88.39,0,1.53,88.39,0.137,0.294,0.57,12.11,25.99,50.29391,88.39,16,31.8204,56.5696,0,0,82.11431,1,60,24,173.341,28.2
744,61.3,29.4,3.27,1.21,0.75,0.73,1.2,0.003,0.01,0,0,0,0,0.45,0,450,0,0,0,0,1051,700,150.52,75.48,0,1.53,59.22,0.137,0.294,0.57,8.11,17.41,33.69618,118.09,10,70.854,47.236,0,0,104.55,1,60,24,177.307,36.1
748,61.3,29.4,3.27,1.21,0.75,0.73,1.2,0.003,0.01,0,0,0,0,0.45,0,450,0,0,0,0,1051,700,169.83,56.61,0,1.53,44.39,0.137,0.294,0.57,6.08,13.05,25.25791,133.18,14,58.5992,74.5808,0,0,83.85711,1,60,24,236.624,40.9
752,61.3,29.4,3.27,1.21,0.75,0.73,1.2,0.003,0.01,0,0,0,0,0.45,0,350,0,0,0,0,1167,777,118.09,59.22,0,1.53,59.22,0.137,0.294,0.57,8.11,17.41,33.69618,118.09,10,70.854,47.236,0,0,104.55,0.333333,60,24,151.187,13.8
756,61.3,29.4,3.27,1.21,0.75,0.73,1.2,0.003,0.01,0,0,0,0,0.45,0,450,0,0,0,0,1051,700,150.52,75.48,0,1.53,59.22,0.137,0.294,0.57,8.11,17.41,33.69618,118.09,14,51.9596,66.1304,0,0,85.65578,0.333333,60,24,198.518,23.5
763,33.073,20.269,0.987,33.102,8.112,0.631,0.417,1.638,0,0,0,0,0,0,0,0,360,0,40,0,1024,524,156.25,62.86,0,0,156.25,0.09,0.28,0.63,14.06,43.75,98.4375,62.86,14,27.6584,35.2016,0,0,126.0959,0,25,24,163.011,43.2045
767,37.279,25.987,0.901,25.766,6.316,0.513,0.331,1.274,0,0,0,0,0,0,0,0,280,0,120,0,1024,524,156.25,62.86,0,0,156.25,0.09,0.28,0.63,14.06,43.75,98.4375,62.86,10,37.716,25.144,0,0,136.1535,0,25,24,165.991,49.881
807,56.8739,25.0672,2.39748,9.34954,2.44396,0,0,0.611491,0.375306,0,0,0,0,0.741394,0,307,102,0,0,0,1290,549,102,41,0,0,102,0.137,0.294,0.57,13.97,29.99,58.038,41,10,24.6,16.4,55,0,137.638,0,25,24,83.4852,21.3
849,40.17,13.86,15.16,9.7,9.57,3.66,1.53,0.09,0,0,0,0,0,4.75,0,0,0,0,0,410,740,1110,103,41,2.13,1.53,103,0.11,0.29,0.6,11.33,29.87,61.8,41,14,18.04,22.96,148,12.3,235.22,0,25,24,113.0524,10.6
853,40.17,13.86,15.16,9.7,9.57,3.66,1.53,0.09,0,0,0,0,0,4.75,0,0,0,0,0,410,740,1110,103,41,2.13,1.53,103,0.11,0.29,0.6,11.33,29.87,61.8,41,10,24.6,16.4,95,16.4,191.24,0,25,24,108.198,13.4
857,40.17,13.86,15.16,9.7,9.57,3.66,1.53,0.09,0,0,0,0,0,4.75,0,0,0,0,0,410,740,1110,103,41,2.13,1.53,103,0.11,0.29,0.6,11.33,29.87,61.8,41,14,18.04,22.96,101,24.6,195.6,0,25,24,136.1764,13.3
861,40.17,13.86,15.16,9.7,9.57,3.66,1.53,0.09,0,0,0,0,0,4.75,0,0,0,0,0,410,740,1110,132,53,2.13,1.53,132,0.11,0.29,0.6,14.52,38.28,79.2,53,14,23.32,29.68,83,12.3,192.9,0,25,24,136.3612,21.1
876,32.62,31.23,8.48,17.12,3.49,0.91,0.1,0,1.65,0,0,0,0,0.93,0,414,0,0,0,0,1260,540,133,53,0,0,133,0.147,0.294,0.56,19.55,39.1,74.347,53,8,36.04,16.96,14,5.8,127.867,0,25,24,101.5584,19.3007
1021,39.8065,17.9952,5.62716,18.8643,3.57837,0.954125,2.82354,1.24467,0.897704,0.101868,0.0520233,0.234358,0,3.10109,0,308,206,0,0,0,935,615,121,99,0,0,121,0.128,0.255,0.62,15.49,30.86,74.657,99,10,59.4,39.6,75,0,209.057,0,25,24,138.778,41.8
1025,39.82,18.004,5.634,18.832,3.574,0.954,2.826,1.244,0.898,0.102,0.052,0.234,0,3.102,0,210,140,0,0,0,1155,750,82,68,0,0,82,0.128,0.255,0.62,10.5,20.91,50.594,68,10,40.8,27.2,60,0,151.394,0,25,24,98.872,38.5
1029,39.8287,18.0097,5.63842,18.8112,3.57118,0.95392,2.82759,1.24357,0.898191,0.102085,0.0519849,0.233769,0,3.10259,0,239,159,0,0,0,1111,721,94,77,0,0,94,0.128,0.255,0.62,12.03,23.97,57.998,77,10,46.2,30.8,52,0,156.198,0,25,24,110.8396,40.1
1033,39.82,18.004,5.634,18.832,3.574,0.954,2.826,1.244,0.898,0.102,0.052,0.234,0,3.102,0,219,146,0,0,0,1145,742,86,70,0,0,86,0.128,0.255,0.62,11.01,21.93,53.062,70,10,42,28,56,0,151.062,0,25,24,102.1056,41.1
1037,39.7995,17.9907,5.62363,18.8809,3.58062,0.954189,2.82227,1.24501,0.897552,0.101799,0.0520354,0.234543,0,3.10062,0,203,136,0,0,0,1160,753,80,65,0,0,80,0.128,0.255,0.62,10.24,20.4,49.36,65,10,39,26,63,0,151.36,0,25,24,95.6564,37
1233,46.78,22.52,9.15,2.24,1.33,0.89,4.09,0.9,1.05,0.17,0,0,0.05,3.57,0,371,0,0,0,0,1111,721,87,72,0,0,87,0.128,0.255,0.62,11.14,22.19,53.679,72,7.5,50.4,21.6,0,0,104.079,28,70,65,891.4616,12.8526
1237,46.78,22.52,9.15,2.24,1.33,0.89,4.09,0.9,1.05,0.17,0,0,0.05,3.57,0,355,0,0,0,0,1160,753,84,69,0,0,84,0.128,0.255,0.62,10.75,21.42,51.828,69,7.5,48.3,20.7,0,0,100.128,28,70,65,888.9829,18.8496
1241,43.309,20.2678,7.39655,10.5145,2.44909,0.921917,3.45964,1.07155,0.974197,0.136088,0,0,0.141762,3.33661,0,309,77,0,0,0,1111,721,91,75,0,0,91,0.128,0.255,0.62,11.65,23.21,56.147,75,7.5,52.5,22.5,0,0,108.647,0,20,24,89.8811,23.6128
1245,43.2902,20.2556,7.38703,10.5594,2.45517,0.92209,3.45621,1.07249,0.973785,0.135904,0,0,0.14226,3.33534,0,283,71,0,0,0,1145,742,83,68,0,0,83,0.128,0.255,0.62,10.62,21.17,51.211,68,7.5,47.6,20.4,0,0,98.811,0,20,24,82.8276,20.8303
1249,43.3204,20.2752,7.40228,10.4875,2.44544,0.921813,3.4617,1.07099,0.974444,0.136199,0,0,0.141462,3.33737,0,274,68,0,0,0,1160,753,81,66,0,0,81,0.128,0.255,0.62,10.37,20.66,49.977,66,7.5,46.2,19.8,0,0,96.177,0,20,24,80.8914,21.4342
1253,39.8292,18.01,5.63865,18.8101,3.57103,0.953915,2.82767,1.24354,0.898201,0.10209,0,0,0.233757,3.10262,0,227,151,0,0,0,1111,721,89,73,0,0,89,0.128,0.255,0.62,11.39,22.7,54.913,73,7.5,51.1,21.9,0,0,106.013,0,20,24,91.5321,38.018
1257,39.82,18.004,5.634,18.832,3.574,0.954,2.826,1.244,0.898,0.102,0,0,0.234,3.102,0,213,142,0,0,0,1145,742,84,69,0,0,84,0.128,0.255,0.62,10.75,21.42,51.828,69,7.5,48.3,20.7,0,0,100.128,0,20,24,87.1741,37.0519
1261,34.5954,14.614,2.99467,31.287,5.25849,1.00204,1.87716,1.50223,0.783899,0.0509549,0,0,0.372122,2.75069,0,113,264,0,0,0,1111,721,89,73,0,0,89,0.128,0.255,0.62,11.39,22.7,54.913,73,7.5,51.1,21.9,0,0,106.013,0,20,24,96.9521,62.5427
1265,34.5948,14.6136,2.99439,31.2883,5.25866,1.00205,1.87706,1.50226,0.783887,0.0509496,0,0,0.372136,2.75065,0,101,236,0,0,0,1145,742,79,65,0,0,79,0.128,0.255,0.62,10.11,20.15,48.743,65,7.5,45.5,19.5,0,0,94.243,0,20,24,87.5161,54.404
1269,34.5781,14.6028,2.98594,31.3282,5.26406,1.0022,1.87403,1.50308,0.783522,0.0507862,0,0,0.372579,2.74953,0,95,223,0,0,0,1160,753,75,61,0,0,75,0.128,0.255,0.62,9.6,19.13,46.275,61,7.5,42.7,18.3,0,0,88.975,0,20,24,83.2029,50.1018
1318,50.76,27.32,4.64,5.4,3.72,0.8,4.85,2,1.16,0,0,0,0,0,0,280,0,0,0,0,1309,561,126,84,0,0,126,0.0883,0.2764,0.64,11.13,34.83,80.0478,84,12,43.68,40.32,0,0,123.7278,1,80,24,167.96,42.7
1387,50.7695,24.491,1.464,8.7425,9.235,0.6835,2.267,0.749,0.8495,0,0,0,0,0,0,340,60,0,0,0,1200,646,107,53,0,0,107,0.1536,0.3071,0.54,16.44,32.86,57.7051,53,10,31.8,21.2,0,4,91.9051,0,25,20,99.9788,15.8394
1391,50.7695,24.491,1.464,8.7425,9.235,0.6835,2.267,0.749,0.8495,0,0,0,0,0,0,340,60,0,0,0,1200,646,107,53,0,0,107,0.1536,0.3071,0.54,16.44,32.86,57.7051,53,12,27.56,25.44,0,4,87.6651,0,25,20,108.0984,19.0123
1395,49.946,23.848,1.402,10.44,9.13,0.658,2.166,0.812,0.846,0,0,0,0,0,0,320,80,0,0,0,1227,661,93,47,0,0,93,0.1536,0.3071,0.54,14.28,28.56,50.1549,47,10,28.2,18.8,0,4,80.7549,0,25,20,91.5044,26.8165
1718,50.76,27.32,4.64,5.4,3.72,0.8,4.85,2,1.16,0,0,0,0,0,0,280,0,0,0,0,1309,561,126,84,0,0,126,0.0883,0.2764,0.64,11.13,34.83,80.0478,84,12,43.68,40.32,0,0,123.7278,0,25,24,132.6688,2.9
1724,49.2274,26.1356,4.543646,8.32401,3.697104,0.77615,4.641551,2.1431,1.144736,0,0,0,0,0,14,280,0,0,0,0,1309,561,126,84,0,0,126,0.0883,0.2764,0.64,11.13,34.83,80.0478,84,12,43.68,40.32,0,0,123.7278,0,25,24,144.4288,7.1
1729,49.2274,26.1356,4.543646,8.32401,3.697104,0.77615,4.641551,2.1431,1.144736,0,0,0,0,0,14,280,0,0,0,0,1309,561,126,84,0,0,126,0.0883,0.2764,0.64,11.13,34.83,80.0478,84,12,43.68,40.32,0,0,123.7278,1,80,24,179.72,49.8