File: DS_cube_100_2_Strength.csv
Idx_Sample,SiO2,Al2O3,Fe2O3,CaO,MgO,Na2O,K2O,SO3,TiO2,P2O5,LOI,Cement (kg/m3),FA (kg/m3),GGBFS (kg/m3),Other SCM (kg/m3),Coarse aggregate (kg/m3),Fine aggregate (kg/m3),Na2SiO3,NaOH,NaOH specific gravity,Na2SiO3 specific gravity,Na2O (l),Sio2 (l),H2O,Na2O (Dry),Sio2 (Dry),Water,Concentration (M) NaOH,Water,NaOH (Dry),Additional water,Superplasticizer,water -eff,Initial curing time (day),Initial curing temp (C),Final curing temp (C),Mixture CO2 (Na2SiO3 as solution),7-d Cubic compressive strength (MPa)
809,60.2429,27.0048,2.16286,3.43333,1.09667,0.47619,0.952381,0.485714,0,0,2.49524,20,400,0,0,865,865,100,40,0,1.5,0.114,0.301,0.59,11.4,30.1,58.5,16,14.4,25.6,35,10.5,114.2,2,50,24,163.551,29.1667
812,62.3,28.1,2.1,0.5,1,0.5,1,0.4,0,0,2.5,0,350,0,0,920,920,86.4286,34.5714,0,1.5,0.114,0.301,0.59,9.85,26.02,50.5607,16,12.4457,22.1257,35,10.5,104.306,2,50,24,135.54,18.3529
815,62.3,28.1,2.1,0.5,1,0.5,1,0.4,0,0,2.5,0,400,0,0,875,875,100,40,0,1.5,0.114,0.301,0.59,11.4,30.1,58.5,16,14.4,25.6,35,10.5,114.2,2,50,24,146.847,32.2222
818,62.3,28.1,2.1,0.5,1,0.5,1,0.4,0,0,2.5,0,400,0,0,875,875,100,40,0,1.5,0.114,0.301,0.59,11.4,30.1,58.5,16,14.4,25.6,35,10.5,114.2,2,50,24,146.847,25.2778
821,62.3,28.1,2.1,0.5,1,0.5,1,0.4,0,0,2.5,0,400,0,0,875,875,100,40,0,1.5,0.114,0.301,0.59,11.4,30.1,58.5,16,14.4,25.6,35,10.5,114.2,2,28,24,118.614,9.83321
824,62.3,28.1,2.1,0.5,1,0.5,1,0.4,0,0,2.5,0,400,0,0,875,875,100,40,0,1.5,0.114,0.301,0.59,11.4,30.1,58.5,16,14.4,25.6,35,10.5,114.2,1,50,24,130.806,22.7857
827,62.3,28.1,2.1,0.5,1,0.5,1,0.4,0,0,2.5,0,400,0,0,880,880,100,40,0,1.5,0.114,0.301,0.59,11.4,30.1,58.5,16,14.4,25.6,30,10.5,109.2,2,50,24,146.895,30.625
830,62.3,28.1,2.1,0.5,1,0.5,1,0.4,0,0,2.5,0,400,0,0,880,880,100,40,0,1.5,0.114,0.301,0.59,11.4,30.1,58.5,16,14.4,25.6,35,7.5,112.4,2,50,24,141.255,27.377
833,62.3,28.1,2.1,0.5,1,0.5,1,0.4,0,0,2.5,0,400,0,0,875,875,100,40,0,1.5,0.114,0.301,0.59,11.4,30.1,58.5,18,11.2,28.8,35,10.5,111,2,50,24,152.975,18.5537
836,62.3,28.1,2.1,0.5,1,0.5,1,0.4,0,0,2.5,0,400,0,0,860,860,114,46,0,1.5,0.114,0.301,0.59,13,34.31,66.69,16,16.56,29.44,35,10.5,124.55,2,50,24,159.097,29.5161
839,62.3,28.1,2.1,0.5,1,0.5,1,0.4,0,0,2.5,0,400,0,0,875,875,93,47,0,1.5,0.114,0.301,0.59,10.6,27.99,54.405,16,16.92,30.08,35,47,134.525,2,50,24,221.527,23.0777
866,40.17,13.86,15.16,9.7,9.57,3.66,1.53,0.09,0,0,4.75,0,0,0,410,740,1110,103,41,2.13,1.53,0.11,0.29,0.6,11.33,29.87,61.8,14,18.04,22.96,101,12.3,188.22,2,40,24,132.3024,22.9
869,40.17,13.86,15.16,9.7,9.57,3.66,1.53,0.09,0,0,4.75,0,0,0,410,740,1110,132,53,2.13,1.53,0.11,0.29,0.6,14.52,38.28,79.2,14,23.32,29.68,83,12.3,192.9,1,80,24,171.653,27.8
979,29.945,10.0725,3.005,46.1775,2.035,0.2375,0.8025,2.2325,0.46,0.135,0,225,75,0,0,1193.02,795.35,29.46,11.786,0,0,0.1627,0.3464,0.49,4.79,10.2,14.4619,10,7.0716,4.7144,125.19,0,146.724,1,100,40,266.603,25.6934
982,57.9,31.11,5.07,1.29,0.97,0.09,1,0.05,0,0,0,0,300,0,0,1128.44,752.29,117.86,47.14,0,0,0.1627,0.3464,0.49,19.18,40.83,57.8575,10,28.284,18.856,50.76,0,136.901,1,100,40,136.891,28.4393
985,51.215,21.5975,4.455,16.3725,1.345,0.1325,0.6875,0.7775,1.38,0.405,0,75,225,0,0,1151.7,767.79,72.32,28.93,0,0,0.1627,0.3464,0.49,11.77,25.05,35.5019,10,17.358,11.572,89.11,0,141.97,1,100,40,169.434,25.3992
988,40.58,15.835,3.73,31.275,1.69,0.185,0.745,1.505,0.92,0.27,0,175,175,0,0,1098.54,732.36,68.75,27.5,0,0,0.1627,0.3464,0.49,11.19,23.82,33.7494,10,16.5,11,117.11,0,167.359,1,100,40,250.428,32.8523
991,29.945,10.0725,3.005,46.1775,2.035,0.2375,0.8025,2.2325,0.46,0.135,0,262.5,87.5,0,0,1124.337,749.56,28.13,11.25,0,0,0.1627,0.3464,0.49,4.58,9.74,13.809,10,6.75,4.5,151.32,0,171.879,1,100,40,296.714,25.6934
994,57.9,31.11,5.07,1.29,0.97,0.09,1,0.05,0,0,0,0,350,0,0,1051,700.67,112.5,45,0,0,0.1627,0.3464,0.49,18.3,38.97,55.22625,10,27,18,80.28,0,162.506,1,100,40,132.903,27.1644
1339,65.6,26.53,5.49,0.31,0.76,0.36,0.23,0.31,0,0,0.41,0,364,0,0,1311,562,117,46,0,0,0.1695,0.3506,0.4799,19.83,41.02,56.1483,8,31.28,14.72,0,7.28,91.7963,1,60,27,116.9,29.5457
1342,65.6,26.53,5.49,0.31,0.76,0.36,0.23,0.31,0,0,0.41,0,430,0,0,1243,533,138,55,0,0,0.1695,0.3506,0.4799,23.39,48.38,66.2262,10,33,22,0,8.6,104.3862,1,60,27,140.681,30.9104
1345,65.6,26.53,5.49,0.31,0.76,0.36,0.23,0.31,0,0,0.41,0,331,0,0,1344,576,106,42,0,0,0.1695,0.3506,0.4799,17.97,37.16,50.8694,10,25.2,16.8,0,6.62,80.0414,1,60,27,115.776,29.9312
1348,65.6,26.53,5.49,0.31,0.76,0.36,0.23,0.31,0,0,0.41,0,397,0,0,1277,547,128,50,0,0,0.1695,0.3506,0.4799,21.7,44.88,61.4272,12,26,24,0,7.94,92.1912,1,60,27,139.769,33.1071
1351,65.6,26.53,5.49,0.31,0.76,0.36,0.23,0.31,0,0,0.41,0,298,0,0,1377,590,96,158,0,0,0.1695,0.3506,0.4799,16.27,33.66,46.0704,12,82.16,75.84,0,5.96,131.8064,1,60,27,224.09,29.1515
1354,65.6,26.53,5.49,0.31,0.76,0.36,0.23,0.31,0,0,0.41,0,364,0,0,1311,562,117,47,0,0,0.1695,0.3506,0.4799,19.83,41.02,56.1483,14,20.68,26.32,0,7.28,81.1963,1,60,27,139.114,35.0562
1357,65.6,26.53,5.49,0.31,0.76,0.36,0.23,0.31,0,0,0.41,0,397,0,0,1277,547,128,51,0,0,0.1695,0.3506,0.4799,21.7,44.88,61.4272,8,34.68,16.32,0,7.94,100.8712,1,60,27,125.062,23.5624
1360,65.6,26.53,5.49,0.31,0.76,0.36,0.23,0.31,0,0,0.41,0,397,0,0,1277,547,128,51,0,0,0.1695,0.3506,0.4799,21.7,44.88,61.4272,8,34.68,16.32,0,7.94,100.8712,1,90,27,144.312,32.8504
1363,65.6,26.53,5.49,0.31,0.76,0.36,0.23,0.31,0,0,0.41,0,397,0,0,1277,547,128,51,0,0,0.1695,0.3506,0.4799,21.7,44.88,61.4272,10,30.6,20.4,0,7.94,96.7912,1,70,27,139.2914,28.0126
1366,65.6,26.53,5.49,0.31,0.76,0.36,0.23,0.31,0,0,0.41,0,397,0,0,1277,547,128,51,0,0,0.1695,0.3506,0.4799,21.7,44.88,61.4272,10,30.6,20.4,0,7.94,96.7912,1,100,27,158.5414,38.4736
1369,65.6,26.53,5.49,0.31,0.76,0.36,0.23,0.31,0,0,0.41,0,397,0,0,1277,547,128,51,0,0,0.1695,0.3506,0.4799,21.7,44.88,61.4272,12,26.52,24.48,0,7.94,92.7112,1,80,27,153.521,35.8491
1372,65.6,26.53,5.49,0.31,0.76,0.36,0.23,0.31,0,0,0.41,0,397,0,0,1277,547,128,51,0,0,0.1695,0.3506,0.4799,21.7,44.88,61.4272,14,22.44,28.56,0,7.94,88.6312,1,60,27,148.501,27.0631
1375,65.6,26.53,5.49,0.31,0.76,0.36,0.23,0.31,0,0,0.41,0,397,0,0,1277,547,128,51,0,0,0.1695,0.3506,0.4799,21.7,44.88,61.4272,14,22.44,28.56,0,7.94,88.6312,1,90,27,167.751,38.854
1723,50.76,27.32,4.64,5.4,3.72,0.8,4.85,2,1.16,0,0,0,280,0,0,1309,561,126,84,0,0,0.0883,0.2764,0.64,11.13,34.83,80.0478,12,43.68,40.32,0,0,123.7278,1,80,24,167.96,44.1
1730,36.74,10.78,0.42,43.34,3.21,0.18,0.17,0.53,0,0,0.6,0,0,400,0,894,894,101.82,58.18,0,1.5,0.13,0.32,0.55,13.24,32.58,56.001,10,34.908,23.272,30,12,128.109,1,30,24,136.372,41.13
1733,36.74,10.78,0.42,43.34,3.21,0.18,0.17,0.53,0,0,0.6,0,0,400,0,894,894,114.29,45.71,0,1.5,0.13,0.32,0.55,14.86,36.57,62.8595,10,27.426,18.284,30,12,127.4855,2,90,24,211.517,66.18
1736,36.74,10.78,0.42,43.34,3.21,0.18,0.17,0.53,0,0,0.6,0,0,400,0,894,894,114.29,45.71,0,1.5,0.13,0.32,0.55,14.86,36.57,62.8595,10,27.426,18.284,30,12,127.4855,3,60,24,195.476,47.16
1739,36.74,10.78,0.42,43.34,3.21,0.18,0.17,0.53,0,0,0.6,0,0,400,0,894,894,122.35,37.65,0,1.5,0.13,0.32,0.55,15.91,39.15,67.2925,12,19.578,18.072,30,12,124.0705,1,90,24,172.305,53.56
1742,36.74,10.78,0.42,43.34,3.21,0.18,0.17,0.53,0,0,0.6,0,0,400,0,894,894,101.82,58.18,0,1.5,0.13,0.32,0.55,13.24,32.58,56.001,12,30.2536,27.9264,30,12,123.4546,2,60,24,186.993,75.53
1745,36.74,10.78,0.42,43.34,3.21,0.18,0.17,0.53,0,0,0.6,0,0,400,0,894,894,114.29,45.71,0,1.5,0.13,0.32,0.55,14.86,36.57,62.8595,12,23.7692,21.9408,30,12,123.8287,3,30,24,144.728,68.93
1748,36.74,10.78,0.42,43.34,3.21,0.18,0.17,0.53,0,0,0.6,0,0,400,0,894,894,114.29,45.71,0,1.5,0.13,0.32,0.55,14.86,36.57,62.8595,14,20.1124,25.5976,30,12,120.1719,1,60,24,164.565,62.95
1751,36.74,10.78,0.42,43.34,3.21,0.18,0.17,0.53,0,0,0.6,0,0,400,0,894,894,122.35,37.65,0,1.5,0.13,0.32,0.55,15.91,39.15,67.2925,14,16.566,21.084,30,12,121.0585,2,30,24,142.781,61.08
1754,36.74,10.78,0.42,43.34,3.21,0.18,0.17,0.53,0,0,0.6,0,0,400,0,894,894,101.82,58.18,0,1.5,0.13,0.32,0.55,13.24,32.58,56.001,14,25.5992,32.5808,30,12,118.8002,3,90,24,276.115,52.52
1756,36.74,10.78,0.42,43.34,3.21,0.18,0.17,0.53,0,0,0.6,0,0,400,0,858,858,142.86,57.14,0,1.5,0.13,0.32,0.55,18.57,45.72,78.573,14,25.1416,31.9984,30,12,140.9146,3,60,24,231.678,37.83