File: DS_cube_100_1_Strength.csv
Idx_Sample,SiO2,Al2O3,Fe2O3,CaO,MgO,Na2O,K2O,SO3,TiO2,P2O5,SrO,Mn2O3,MnO,LOI,FA (kg/m3),GGBFS (kg/m3),SF (kg/m3),Coarse aggregate (kg/m3),Fine aggregate (kg/m3),Na2SiO3,NaOH,Na2SiO3 specific gravity,Total solution,Na2O (l),Sio2 (l),H2O,Na2O (Dry),Sio2 (Dry),Water,Total NaOH,Concentration (M) NaOH,Water,NaOH (Dry),Additional water,Superplasticizer,water -eff,Initial curing time (day),Initial curing temp (C),Final curing temp (C),Mixture CO2 (Na2SiO3 as solution),1-d Cubic compressive strength (MPa)
192,51.3,30.1,4.57,8.73,0,0,1.56,1.4,0.698,1.6,0,0,0,0,400,0,0,950,850,143,57,0,143,0.1426,0.2943,0.56,20.39,42.08,80.5233,57,12,29.64,27.36,48,28,174.9633,1,70,24,195.6294,45.01
195,51.3,30.1,4.57,8.73,0,0,1.56,1.4,0.698,1.6,0,0,0,0,400,0,0,950,850,143,57,0,143,0.1426,0.2943,0.56,20.39,42.08,80.5233,57,12,29.64,27.36,48,28,174.9633,4,70,24,282.2544,51.68
198,51.3,30.1,4.57,8.73,0,0,1.56,1.4,0.698,1.6,0,0,0,0,400,0,0,950,850,143,57,0,143,0.1426,0.2943,0.56,20.39,42.08,80.5233,57,12,29.64,27.36,48,28,174.9633,2,80,24,237.338,48.56
417,53.245,28.636,4.425,8.3555,0,0,1.683,1.4,0.665,1.52,0,0,0,0,400,0,20,950,850,143,58,0,143,0.1436,0.2943,0.56,20.53,42.08,80.3803,58,10,34.8,23.2,48,24,177.5803,2,70,24,209.298,48.22
481,57.3,27.13,8.06,0.03,2.13,0.73,0,1.06,0,0,0,0,0,1.6,428,0,0,1170,630,122,49,0,122,0.1684,0.3501,0.48,20.54,42.71,58.743,49,14,21.56,27.44,43,8.5,128.403,1,75,24,154.883,30
484,57.3,27.13,8.06,0.03,2.13,0.73,0,1.06,0,0,0,0,0,1.6,428,0,0,1170,630,122,49,0,122,0.1684,0.3501,0.48,20.54,42.71,58.743,49,14,21.56,27.44,43,8.5,128.403,1,75,24,154.883,28
487,57.3,27.13,8.06,0.03,2.13,0.73,0,1.06,0,0,0,0,0,1.6,428,0,0,1170,630,122,49,0,122,0.1684,0.3501,0.48,20.54,42.71,58.743,49,14,21.56,27.44,43,13,131.103,2,75,24,195.426,30
490,57.3,27.13,8.06,0.03,2.13,0.73,0,1.06,0,0,0,0,0,1.6,428,0,0,1170,630,122,49,0,122,0.1684,0.3501,0.48,20.54,42.71,58.743,49,14,21.56,27.44,43,8.5,128.403,2,75,24,186.966,45
493,57.3,27.13,8.06,0.03,2.13,0.73,0,1.06,0,0,0,0,0,1.6,428,0,0,1170,630,114,57,0,114,0.1684,0.3501,0.48,19.2,39.91,54.891,57,12,29.64,27.36,43,4.3,130.111,1,75,24,143.954,43
496,57.3,27.13,8.06,0.03,2.13,0.73,0,1.06,0,0,0,0,0,1.6,428,0,0,1170,630,114,57,0,114,0.1684,0.3501,0.48,19.2,39.91,54.891,57,14,25.08,31.92,43,4.3,125.551,1,75,24,152.686,46
738,61.3,29.4,3.27,1.21,0.75,0.73,1.2,0.003,0.01,0,0,0,0,0.45,350,0,0,1167,777,118.09,59.22,1.53,59.22,0.137,0.294,0.57,8.11,17.41,33.69618,118.09,14,51.9596,66.1304,0,0,85.65578,1,60,24,202.342,14.6
747,61.3,29.4,3.27,1.21,0.75,0.73,1.2,0.003,0.01,0,0,0,0,0.45,450,0,0,1051,700,150.52,75.48,1.53,59.22,0.137,0.294,0.57,8.11,17.41,33.69618,118.09,14,51.9596,66.1304,0,0,85.65578,1,60,24,213.49,15.9
1022,39.82,18.004,5.634,18.832,3.574,0.954,2.826,1.244,0.898,0.102,0.052,0.234,0,3.102,270,180,0,1030,670,106,87,0,106,0.128,0.255,0.62,13.57,27.03,65.402,87,10,52.2,34.8,65,0,182.602,0,25,24,123.402,14.6
1025,39.82,18.004,5.634,18.832,3.574,0.954,2.826,1.244,0.898,0.102,0.052,0.234,0,3.102,210,140,0,1155,750,82,68,0,82,0.128,0.255,0.62,10.5,20.91,50.594,68,10,40.8,27.2,60,0,151.394,0,25,24,98.872,4
1028,39.82,18.004,5.634,18.832,3.574,0.954,2.826,1.244,0.898,0.102,0.052,0.234,0,3.102,210,140,0,1120,730,83,67,0,83,0.128,0.255,0.62,10.62,21.17,51.211,67,10,40.2,26.8,80,0,171.411,0,25,24,98.202,3.4
1031,39.8292,18.01,5.63865,18.8101,3.57103,0.953915,2.82767,1.24354,0.898201,0.10209,0.0519841,0.233757,0,3.10262,227,151,0,1111,721,89,73,0,89,0.128,0.255,0.62,11.39,22.7,54.913,73,10,43.8,29.2,66,0,164.713,0,25,24,105.5116,8.7
1034,39.82,18.004,5.634,18.832,3.574,0.954,2.826,1.244,0.898,0.102,0.052,0.234,0,3.102,216,144,0,1145,742,85,69,0,85,0.128,0.255,0.62,10.88,21.68,52.445,69,10,41.4,27.6,59,0,152.845,0,25,24,100.8636,9.5
1037,39.7995,17.9907,5.62363,18.8809,3.58062,0.954189,2.82227,1.24501,0.897552,0.101799,0.0520354,0.234543,0,3.10062,203,136,0,1160,753,80,65,0,80,0.128,0.255,0.62,10.24,20.4,49.36,65,10,39,26,63,0,151.36,0,25,24,95.6564,9.3
1232,46.78,22.52,9.15,2.24,1.33,0.89,4.09,0.9,1.05,0.17,0,0,0.05,3.57,380,0,0,1111,721,89,73,0,89,0.128,0.255,0.62,11.39,22.7,54.913,73,7.5,51.1,21.9,0,0,106.013,28,70,65,892.7921,11.0445
1235,46.78,22.52,9.15,2.24,1.33,0.89,4.09,0.9,1.05,0.17,0,0,0.05,3.57,357,0,0,1145,742,84,69,0,84,0.128,0.255,0.62,10.75,21.42,51.828,69,7.5,48.3,20.7,0,0,100.128,28,70,65,888.8661,10.6697
1238,46.78,22.52,9.15,2.24,1.33,0.89,4.09,0.9,1.05,0.17,0,0,0.05,3.57,346,0,0,1160,753,81,67,0,81,0.128,0.255,0.62,10.37,20.66,49.977,67,7.5,46.9,20.1,0,0,96.877,28,70,65,886.7179,9.54465
1241,43.309,20.2678,7.39655,10.5145,2.44909,0.921917,3.45964,1.07155,0.974197,0.136088,0,0,0.141762,3.33661,309,77,0,1111,721,91,75,0,91,0.128,0.255,0.62,11.65,23.21,56.147,75,7.5,52.5,22.5,0,0,108.647,0,20,24,89.8811,6.57833
1244,43.2904,20.2558,7.38717,10.5588,2.45508,0.922088,3.45626,1.07247,0.973791,0.135907,0,0,0.142253,3.33536,291,73,0,1145,742,85,70,0,85,0.128,0.255,0.62,10.88,21.68,52.445,70,7.5,49,21,0,0,101.445,0,20,24,84.8326,6.44899
1247,43.3096,20.2683,7.39687,10.513,2.44889,0.921911,3.45975,1.07152,0.974211,0.136094,0,0,0.141745,3.33665,289,72,0,1160,753,85,70,0,85,0.128,0.255,0.62,10.88,21.68,52.445,70,7.5,49,21,0,0,101.445,0,20,24,84.8974,6.36507
1250,43.2896,20.2552,7.38674,10.5608,2.45536,0.922096,3.45611,1.07251,0.973772,0.135898,0,0,0.142275,3.3353,267,67,0,1160,753,79,64,0,79,0.128,0.255,0.62,10.11,20.15,48.743,64,7.5,44.8,19.2,0,0,93.543,0,20,24,78.9424,3.9687
1253,39.8292,18.01,5.63865,18.8101,3.57103,0.953915,2.82767,1.24354,0.898201,0.10209,0,0,0.233757,3.10262,227,151,0,1111,721,89,73,0,89,0.128,0.255,0.62,11.39,22.7,54.913,73,7.5,51.1,21.9,0,0,106.013,0,20,24,91.5321,8.01798
1256,39.82,18.004,5.634,18.832,3.574,0.954,2.826,1.244,0.898,0.102,0,0,0.234,3.102,216,144,0,1145,742,85,69,0,85,0.128,0.255,0.62,10.88,21.68,52.445,69,7.5,48.3,20.7,0,0,100.745,0,20,24,87.6501,8.70148
1259,39.7995,17.9907,5.62363,18.8809,3.58062,0.954189,2.82227,1.24501,0.897552,0.101799,0,0,0.234543,3.10062,203,136,0,1160,753,80,65,0,80,0.128,0.255,0.62,10.24,20.4,49.36,65,7.5,45.5,19.5,0,0,94.86,0,20,24,83.2089,9.02112
1262,34.6145,14.6264,3.00435,31.2413,5.25231,1.00187,1.88064,1.50128,0.784318,0.0511421,0,0,0.371616,2.75198,108,251,0,1111,721,84,69,0,84,0.128,0.255,0.62,10.75,21.42,51.828,69,7.5,48.3,20.7,0,0,100.128,0,20,24,92.1581,21.5984
1265,34.5948,14.6136,2.99439,31.2883,5.25866,1.00205,1.87706,1.50226,0.783887,0.0509496,0,0,0.372136,2.75065,101,236,0,1145,742,79,65,0,79,0.128,0.255,0.62,10.11,20.15,48.743,65,7.5,45.5,19.5,0,0,94.243,0,20,24,87.5161,18.8529
1268,34.6107,14.6239,3.00239,31.2506,5.25356,1.0019,1.87994,1.50147,0.784233,0.0511043,0,0,0.371718,2.75172,98,228,0,1160,753,77,63,0,77,0.128,0.255,0.62,9.86,19.64,47.509,63,7.5,44.1,18.9,0,0,91.609,0,20,24,85.3439,21.685
1387,50.7695,24.491,1.464,8.7425,9.235,0.6835,2.267,0.749,0.8495,0,0,0,0,0,340,60,0,1200,646,107,53,0,107,0.1536,0.3071,0.54,16.44,32.86,57.7051,53,10,31.8,21.2,0,4,91.9051,0,25,20,99.9788,9.45255
1390,48.299,22.562,1.278,13.835,8.92,0.607,1.964,0.938,0.839,0,0,0,0,0,280,120,0,1210,652,107,53,0,107,0.1536,0.3071,0.54,16.44,32.86,57.7051,53,10,31.8,21.2,0,4,91.9051,0,25,20,102.9356,17.1168
1393,49.1225,23.205,1.34,12.1375,9.025,0.6325,2.065,0.875,0.8425,0,0,0,0,0,300,100,0,1222,658,107,53,0,107,0.1536,0.3071,0.54,16.44,32.86,57.7051,53,12,27.56,25.44,0,4,87.6651,0,25,20,110.1816,21.4815
1396,49.1225,23.205,1.34,12.1375,9.025,0.6325,2.065,0.875,0.8425,0,0,0,0,0,300,100,0,1246,671,93,47,0,93,0.1536,0.3071,0.54,14.28,28.56,50.1549,47,10,28.2,18.8,0,4,80.7549,0,25,20,92.6036,17.2483
1398,49.1225,23.205,1.34,12.1375,9.025,0.6325,2.065,0.875,0.8425,0,0,0,0,0,300,100,0,1223,659,114,46,0,114,0.1536,0.3071,0.54,17.51,35.01,61.4802,46,10,27.6,18.4,0,4,91.4802,0,25,20,99.2296,19.2987