File: DS_cyl_100x200_3_Strength.csv
Idx_Sample,SiO2,Al2O3,Fe2O3,CaO,MgO,Na2O,K2O,SO3,TiO2,P2O5,SrO,Mn2O3,LOI,Cement (kg/m3),FA (kg/m3),GGBFS (kg/m3),Kaolin (kg/m3),Coarse aggregate (kg/m3),Fine aggregate (kg/m3),Na2SiO3,NaOH,Na2SiO3 specific gravity,Total solution,Na2O (l),Sio2 (l),H2O,Na2O (Dry),Sio2 (Dry),Water,Total NaOH,Concentration (M) NaOH,Water,NaOH (Dry),Additional water,Superplasticizer,water -eff,Initial curing time (day),Initial curing temp (C),Mixture CO2 (Na2SiO3 as solution),28-d Cylindrical compressive strength (MPa)
133,50.3,26.3,13.6,2.27,1.44,0.36,0.55,0.32,0,1.58,0,0,0.6,0,408,0,0,1201,647,103,41,0,103,0.1473,0.2975,0.56,15.17,30.64,57.1856,41,14,18.04,22.96,0,6.1,78.8856,1,60,125.477,34.86
135,50.3,26.3,13.6,2.27,1.44,0.36,0.55,0.32,0,1.58,0,0,0.6,0,408,0,0,1201,647,103,41,0,103,0.1473,0.2975,0.56,15.17,30.64,57.1856,41,14,18.04,22.96,0,6.1,78.8856,1,60,125.477,67.53
137,50.3,26.3,13.6,2.27,1.44,0.36,0.55,0.32,0,1.58,0,0,0.6,0,356,0,0,1248,672,89,36,0,111,0.1473,0.2975,0.56,16.35,33.02,61.6272,36,14,19.36,20.16,0,6.1,84.6472,1,60,115.213,25.44
139,50.3,26.3,13.6,2.27,1.44,0.36,0.55,0.32,0,1.58,0,0,0.6,0,381,0,0,1201,647,122,49,0,103,0.1473,0.2975,0.56,15.17,30.64,57.1856,49,14,18.04,27.44,0,6.1,78.8856,1,60,140.788,35.51
141,33.45,13.46,0.31,41.74,5.99,0.16,0.29,2.74,0.84,0.12,0,0.4,0,0,0,419,0,1039,784,53,56,0,53,0.147,0.294,0.56,7.79,15.58,29.627,56,10,33.6,22.4,137,0,200.227,0,25,92.5144,32.9
143,33.45,13.46,0.31,41.74,5.99,0.16,0.29,2.74,0.84,0.12,0,0.4,0,0,0,412,0,1039,784,87,33,0,87,0.147,0.294,0.56,12.79,25.58,48.633,33,10,19.8,13.2,135,0,203.433,0,25,86.7724,43.5
145,49.45,29.61,10.72,3.47,1.3,0.31,0.54,0.27,1.76,0.53,0,0.17,1.45,0,467,0,0,1039,784,119,75,0,119,0.147,0.294,0.56,17.49,34.99,66.521,75,10,45,30,38,0,149.521,0,25,110.9084,53.3
227,48.3,30.5,12.1,2.8,1.2,0.2,0.4,0.3,0,0,0,0,1.7,0,381,0,0,1294,554,122,49,0,122,0.147,0.294,0.56,17.93,35.87,68.198,49,8,33.32,15.68,0,0,101.518,0.75,25,81.6824,69.8
229,48.3,30.5,12.1,2.8,1.2,0.2,0.4,0.3,0,0,0,0,1.7,0,381,0,0,1294,554,117,106,0,117,0.147,0.294,0.56,17.2,34.4,65.403,106,8,72.08,33.92,0,0,137.483,7,60,274.68,77.9
430,50.5,26.57,13.77,2.13,1.54,0.45,0.77,0.41,0,1,0,0,0.6,0,408,0,0,1201,647,93,62,0,93,0.091,0.289,0.62,8.46,26.88,57.66,62,14,27.28,34.72,0,0,84.94,1,60,132.93,36
586,50,28.25,13.5,1.79,0.89,0.32,0.46,0.38,1.54,0.98,0,0,0.64,0,400,0,0,1209,651,114.3,45.7,0,114.3,0.114,0.307,0.58,13.03,35.09,66.1797,45.7,14,20.108,25.592,0,0,86.2877,0,25,100.685,26.5116
588,46.492,25.46,10.922,10.052,1.5,0.304,0.434,1.22,1.342,0.788,0,0,0.53,0,320,80,0,1209,651,114.3,45.7,0,114.3,0.114,0.307,0.58,13.03,35.09,66.1797,45.7,14,20.108,25.592,0,0,86.2877,0,25,104.525,45.5814
590,48.246,26.855,12.211,5.921,1.195,0.312,0.447,0.8,1.441,0.884,0,0,0.585,0,360,40,0,1209,651,100,40,0,100,0.114,0.307,0.58,11.4,30.7,57.9,40,14,17.6,22.4,0,0,75.5,0,25,91.344,45.7143
592,48.246,26.855,12.211,5.921,1.195,0.312,0.447,0.8,1.441,0.884,0,0,0.585,0,360,40,0,1209,651,96,64,0,96,0.114,0.307,0.58,10.94,29.47,55.584,64,14,28.16,35.84,0,0,83.744,0,25,115.6416,35.5856
643,49,31,2.8,5.4,2.5,3.76,1.17,0.3,2.1,0.9,0.1,0.1,0.3,0,424.8,0,0,1183.2,585.6,95.04,63.36,0,95.04,0.147,0.294,0.56,13.97,27.94,53.12736,63.36,14,27.8784,35.4816,9.6,48,209.406,1,70,231.466,52.0882
647,49,31,2.8,5.4,2.5,3.76,1.17,0.3,2.1,0.9,0.1,0.1,0.3,0,424.8,0,0,1183.2,585.6,95.04,63.36,0,95.04,0.147,0.294,0.56,13.97,27.94,50.3712,63.36,14,27.8784,35.4816,45.6,0,177.8496,0,25,112.351,46
718,51.7628,25.85,10.6618,5.602,0.156,0.3684,0.5076,0.432,0.6674,1.5228,0,0,0.7592,24,376,0,0,1209,651,114.3,45.7,0,114.3,0.114,0.301,0.59,13.03,34.4,66.8655,45.7,14,20.108,25.592,0,0,86.9735,0,25,120.749,34.2857
720,50.458,24.95,10.323,8.07,0.26,0.374,0.486,0.52,0.639,1.458,0,0,0.812,40,360,0,0,1209,651,114.3,45.7,0,114.3,0.114,0.301,0.59,13.03,34.4,66.8655,45.7,14,20.108,25.592,0,0,86.9735,0,25,134.125,39.6226
722,50.458,24.95,10.323,8.07,0.26,0.374,0.486,0.52,0.639,1.458,0,0,0.812,40,360,0,0,1209,651,106.7,53.3,0,106.7,0.114,0.301,0.59,12.16,32.12,62.4195,53.3,14,23.452,29.848,0,0,85.8715,0,25,139.539,39.6226
783,45.23,19.95,13.15,15.51,3.2,0,0,0,0,0,0,0,0,0,414,0,0,1091,588,104,104,0,104,0.1532,0.3287,0.52,15.93,34.18,53.8824,104,10,62.4,41.6,0,0,116.2824,0,25,126.8192,39.67
785,45.23,19.95,13.15,15.51,3.2,0,0,0,0,0,0,0,0,0,414,0,0,1091,588,104,104,0,104,0.1532,0.3287,0.52,15.93,34.18,53.8824,104,20,20.8,83.2,0,0,74.6824,0,25,206.4832,37.64
787,45.23,19.95,13.15,15.51,3.2,0,0,0,0,0,0,0,0,0,414,0,0,1091,588,138,69,0,138,0.1532,0.3287,0.52,21.14,45.36,71.4978,69,15,27.6,41.4,0,0,99.0978,0,25,138.6762,39.02
789,45.23,19.95,13.15,15.51,3.2,0,0,0,0,0,0,0,0,0,414,0,0,1091,588,104,104,0,104,0.1532,0.3287,0.52,15.93,34.18,53.8824,104,10,62.4,41.6,0,0,116.2824,1,60,149.278,46.67
791,45.23,19.95,13.15,15.51,3.2,0,0,0,0,0,0,0,0,0,414,0,0,1091,588,104,104,0,104,0.1532,0.3287,0.52,15.93,34.18,53.8824,104,20,20.8,83.2,0,0,74.6824,1,60,228.942,43.42
793,45.23,19.95,13.15,15.51,3.2,0,0,0,0,0,0,0,0,0,414,0,0,1091,588,138,69,0,138,0.1532,0.3287,0.52,21.14,45.36,71.4978,69,15,27.6,41.4,0,0,99.0978,1,60,161.135,48.18
800,70.3,23.1,1.4,0.18,0.56,0.35,0.91,0.26,2.6,0.22,0,0,2,0,467,0,0,1039,693,234,147,0,234,0.147,0.294,0.56,34.4,68.8,130.806,147,15,58.8,88.2,10,0,199.606,1,80,298.616,22.37
920,58.772,23.615,4.99,6.427,1.191,0.441,1.284,0.487,1.157,0.191,0,0.124,1.323,0,271.6,38.8,77.6,1221.2,620.8,138.7,55.3,1.53,138.7,0.147,0.294,0.56,20.39,40.78,77.5333,55.3,12,28.756,26.544,13.3,0,119.5893,0,25,138.317,41.7
922,58.772,23.615,4.99,6.427,1.191,0.441,1.284,0.487,1.157,0.191,0,0.124,1.323,0,271.6,38.8,77.6,1221.2,620.8,138.7,55.3,1.53,138.7,0.147,0.294,0.56,20.39,40.78,77.5333,55.3,12,28.756,26.544,13.3,0,119.5893,0.5,60,149.547,37.8
924,58.772,23.615,4.99,6.427,1.191,0.441,1.284,0.487,1.157,0.191,0,0.124,1.323,0,271.6,38.8,77.6,1221.2,620.8,138.7,55.3,1.53,138.7,0.147,0.294,0.56,20.39,40.78,77.5333,55.3,12,28.756,26.544,13.3,0,119.5893,1,60,160.776,50
926,58.772,23.615,4.99,6.427,1.191,0.441,1.284,0.487,1.157,0.191,0,0.124,1.323,0,271.6,38.8,77.6,1221.2,620.8,138.7,55.3,1.53,138.7,0.147,0.294,0.56,20.39,40.78,77.5333,55.3,12,28.756,26.544,13.3,0,119.5893,0.5,75,154.359,53.9
928,58.772,23.615,4.99,6.427,1.191,0.441,1.284,0.487,1.157,0.191,0,0.124,1.323,0,271.6,38.8,77.6,1221.2,620.8,138.7,55.3,1.53,138.7,0.147,0.294,0.56,20.39,40.78,77.5333,55.3,12,28.756,26.544,13.3,0,119.5893,1,75,170.401,62.3
930,58.772,23.615,4.99,6.427,1.191,0.441,1.284,0.487,1.157,0.191,0,0.124,1.323,0,271.6,38.8,77.6,1221.2,620.8,138.7,55.3,1.53,138.7,0.147,0.294,0.56,20.39,40.78,77.5333,55.3,12,28.756,26.544,13.3,0,119.5893,0.5,90,159.172,58.6
932,58.772,23.615,4.99,6.427,1.191,0.441,1.284,0.487,1.157,0.191,0,0.124,1.323,0,271.6,38.8,77.6,1221.2,620.8,138.7,55.3,1.53,138.7,0.147,0.294,0.56,20.39,40.78,77.5333,55.3,12,28.756,26.544,13.3,0,119.5893,1,90,180.026,60.7
1044,32.4,14.96,0.83,40.7,5.99,0.42,0.29,2.74,0.84,0.38,0,0.4,0,0,0,400,0,1182,636,120,60,1.53,120,0.147,0.294,0.56,17.64,35.28,67.08,60,12,31.2,28.8,48,20,158.28,0,25,165.4784,38.98
1046,32.4,14.96,0.83,40.7,5.99,0.42,0.29,2.74,0.84,0.38,0,0.4,0,0,0,450,0,1161,625,105,53,1.53,105,0.147,0.294,0.56,15.44,30.87,58.695,53,14,23.32,29.68,54,22.5,149.515,0,25,168.91,61.15
1048,32.4,14.96,0.83,40.7,5.99,0.42,0.29,2.74,0.84,0.38,0,0.4,0,0,0,450,0,1102,594,149,99,1.53,149,0.147,0.294,0.56,21.9,43.81,83.291,99,12,51.48,47.52,54,22.5,202.271,0,25,218.4816,37.32
1050,32.4,14.96,0.83,40.7,5.99,0.42,0.29,2.74,0.84,0.38,0,0.4,0,0,0,500,0,1082,583,135,90,1.53,135,0.147,0.294,0.56,19.85,39.69,75.465,90,14,39.6,50.4,60,25,190.065,0,25,226.108,42.93
1217,53.71,27.2,11.7,1.9,0,0.36,0.54,0.3,1.62,0.71,0,0,0.68,0,400,0,0,1218,655.9,100,40,0,100,0.115,0.3,0.59,11.5,30,58.5,40,14,17.6,22.4,0,6,79.7,0,25,100.771,32.5
1219,51.7135,25.8224,11.149,5.67755,0.159184,0.368571,0.506939,0.434694,1.52082,0.666531,0,0,0.760816,24,368,0,0,1209,651,114.3,45.7,0,114.3,0.115,0.3,0.59,13.14,34.29,66.8655,45.7,14,20.108,25.592,0,0,86.9735,0,25,120.717,43.2
1221,51.7534,25.85,11.16,5.602,0.156,0.3684,0.5076,0.432,1.5228,0.6674,0,0,0.7592,24,376,0,0,1218,655.9,100,40,0,100,0.115,0.3,0.59,11.5,30,58.5,40,14,17.6,22.4,6,6,85.7,0,25,120.835,35.3
1223,51.335,25.705,10.582,6.255,0,0.355,0.524,0.632,1.504,0.685,0,0,0.851,0,360,40,0,1209,651,114.3,45.7,0,114.3,0.115,0.3,0.59,13.14,34.29,66.8655,45.7,14,20.108,25.592,0,0,86.9735,0,25,102.605,38.3
1225,53.71,27.2,11.7,1.9,0,0.36,0.54,0.3,1.62,0.71,0,0,0.68,0,400,0,0,1218.1,655.9,100,40,0,100,0.115,0.3,0.59,11.5,30,58.5,40,14,17.6,22.4,6,6,85.7,0,25,100.7712,32.5
1309,74.18,9.44,4.22,5.53,2.48,0.32,1.46,0,0.96,0,0,0,0.82,0,459,0,0,1172,539,142.857,57.1429,1.53,142.857,0.154,0.385,0.46,22,55,65.8571,57.1429,10,34.2857,22.8571,0,0,100.143,0,20,105.249,14.2373
1311,71.3197,9.08144,4.12836,8.52001,2.50361,0.304,1.40887,0.22779,0.950269,0,0,0,0.995401,22.95,436.05,0,0,1172,539,142.857,57.1429,1.53,142.857,0.154,0.385,0.46,22,55,65.8571,57.1429,10,34.2857,22.8571,0,0,100.143,0,20,124.435,29.1525
1313,68.4595,8.72288,4.03672,11.51,2.52722,0.288,1.35774,0.455581,0.940538,0,0,0,1.1708,45.9,413.1,0,0,1172,539,142.857,57.1429,1.53,142.857,0.154,0.385,0.46,22,55,65.8571,57.1429,10,34.2857,22.8571,0,0,100.143,0,20,143.621,25.7627
1314,68.4595,8.72288,4.03672,11.51,2.52722,0.288,1.35774,0.455581,0.940538,0,0,0,1.1708,45.9,413.1,0,0,1172,539,142.857,57.1429,1.53,142.857,0.154,0.385,0.46,22,55,65.8571,57.1429,10,34.2857,22.8571,0,0,100.143,1,80,178.913,50.678